
     ========================================================
     |                                                      |
     |        HydroLight Version 6.0.1 (MAIN CODE)          |
     |        Copyright (c) 2019 by John D. Hedley          |
     |                                                      |
     |       This copy of HE6 is licensed solely to         |
     |   Kim Course 2025                                    |
     |                                                      |
     |     S/N KIM500_31122025                              |
     |                                                      |
     | THIS PROGRAM IS EXPERIMENTAL AND IS LICENSED "AS IS" |
     | WITHOUT REPRESENTATION OF WARRANTY OF ANY KIND,      |
     | EITHER EXPRESS OR IMPLIED.  THE ENTIRE RISK AS TO    |
     | THE QUALITY AND PERFORMANCE OF HYDROLIGHT IS WITH    |
     | THE USER.  HYDROLIGHT IS NOT FAULT TOLERANT.         |
     |                                                      |
     ========================================================



  RUN TITLE:  Replace the rootname and title (22 NOV 2025 21:29)                                                                                                                                                                                                              

  Run started on 22 NOV 2025 at 21:29:59.9


  The unit sphere of directions is partitioned into quads that have the standard 10-degree theta and 15-degree phi spacing

  The radiance distribution is computed on the following (theta, phi ,geometric depth, wavelength) grid:
         (The closely spaced pairs of depths are used for computation of K-function derivatives)

         I     theta         J       phi         K       z           L    lambda
               (deg)                (deg)               (m)                (nm)

         1      87.5         1       0.0         1     0.000         1     410.0
         2      80.0         2      15.0         2     0.010         2     430.0
         3      70.0         3      30.0         3     5.000         3     450.0
         4      60.0         4      45.0         4     5.010         4     470.0
         5      50.0         5      60.0         5    10.000         5     490.0
         6      40.0         6      75.0         6    10.010         6     510.0
         7      30.0         7      90.0         7    15.000         7     530.0
         8      20.0         8     105.0         8    15.010         8     550.0
         9      10.0         9     120.0         9    19.990         9     570.0
        10       0.0        10     135.0        10    20.000        10     590.0
                            11     150.0                            11     610.0
                            12     165.0                            12     630.0
                            13     180.0                            13     650.0
                            14     195.0                            14     670.0
                            15     210.0                            15     690.0
                            16     225.0                                        
                            17     240.0                                        
                            18     255.0                                        
                            19     270.0                                        
                            20     285.0                                        
                            21     300.0                                        
                            22     315.0                                        
                            23     330.0                                        
                            24     345.0                                        


  ***** BEGIN IOP MODEL SPECIFICATIONS *****

     The "generic Case 2" IOP model is being used.

        The absorption and scattering coefficients are determined by four components:

           Component 1 is pure water
           Component 2 is chlorophyll-bearing particles
           Component 3 is CDOM (that does not covary with chlorophyll)
           Component 4 is mineral particles (that do not covary with chlorophyll)
                       (See the Technical Documentation or the source code for the bio-optical models that
                        convert these components concentrations to absorption and scattering coefficients.)

  Component 1 (pure water) specification:

     Pure water a and b values are computed as functions of temperature T and salinity S for
        T = 20.0 deg C and S = 35.0 PSU

     The phase function for IOP component  1 comes from file
        ../data/phase_functions/HydroLight/dpf_pure_H2O.txt

     The first  1 header records from data file ../data/phase_functions/HydroLight/dpf_pure_H2O.txt are:
        Phase function: A pure water phase function 0.06225*(1.0 + 0.835*cospsi^2) (created 27 Aug 2018 at 16:19)

          2 header records read

  Component 2 (chlorophyll-bearing particles) specification:

     The Chlorophyll concentration Chl(z) is obtained from measured values read from file:
        C:/HE60/data/examples/Chlzdata.txt                                                                                                                                                                                                                              
        (Linear interpolation is used to define Chl(z) at all depths)

     The first  1 header records from data file C:/HE60/data/examples/Chlzdata.txt are:
        EXAMPLE "chlzdata" file showing the Hydrolight "Chlorophyll-data standard format" for use in IOP models.

          6 header records read

          6 data records read

     The specific absorption spectrum a*(lambda) for component 2 is the default chlorophyll spectrum on file
        ../data/examples/astarchl.txt

     The scattering spectrum b(z,wavelength) for component 2 is calculated using a Power Law model:
          b = 0.3000 [concentration(z)]^(0.6200) * (550.0/wavelength)^(1.0000)

     The phase function for IOP component  2 comes from file
        ../data/phase_functions/HydroLight/dpf_FF_bb001.txt

     The first  1 header records from data file ../data/phase_functions/HydroLight/dpf_FF_bb001.txt are:
        Phase function: Fournier-Forand phase function with bbtilde = 0.001 (FFmu = 3.198, FFn = 1.040) (created 28 Aug 2018 at 13:27)

          2 header records read

  Component 3 (CDOM that does not covary with chlorophyll) specification:

     The CDOM absorption at reference wavelength 440.0 nm is constant with depth with a value of     0.00 (1/m)

     The CDOM absorption spectrum for component 3 is calculated from an exponential model:
          a*(lambda) = 0.0000* exp[-0.0140*(lambda - 440.0)]

     CDOM is assumed to be non-scattering

  Component 4 (mineral particles that do not covary with chlorophyll) specification:

     The mineral particle concentration is constant with depth with a value of     0.00 (g/m^3)

     The concentration-specific absorption spectrum a*(lambda) for component 4 is the user-defined spectrum on file
        ../data/examples/minerals/astarmin_average.txt

     The concentration-specific scattering spectrum b*(lambda) for component 4 is the user-defined spectrum on file
        ../data/examples/minerals/bstarmin_average.txt

     The phase function for IOP component  4 comes from file
        ../data/phase_functions/HydroLight/dpf_Petzold_avg_particle.txt

     The first  1 header records from data file ../data/phase_functions/HydroLight/dpf_Petzold_avg_particle.txt are:
        Phase function: Petzold "average particle" phase function from Light and Water Table 3.10 (created 28 Aug 2018 at 16:28)

          2 header records read

     The component concentrations at the requested output depths are:

           depth        Chl    a_CDOM(440)   minerals
             (m)     (mg/m^3)      (1/m)      (g/m^3)

           0.000       0.500       0.000       0.000
           5.000       0.700       0.000       0.000
          10.000       1.200       0.000       0.000
          15.000       2.100       0.000       0.000
          20.000       1.500       0.000       0.000

  ***** END IOP MODEL SPECIFICATIONS *****


  ***** BEGIN INELASTIC SCATTER AND INTERNAL SOURCE SPECIFICATIONS *****

     Chlorophyll fluorescence is included in this run
        The chlorophyll absorption coefficient needed for the fluorescence calculation is obtained from the chlorophyll component of the IOP model
        The Chl fluorescence quantum efficiency set to  0.020

     CDOM fluorescence is included in this run.
        The CDOM absorption coefficient needed for the fluorescence calculation is obtained from the CDOM component of the IOP model

     Raman scattering is included in this run
        The Raman scattering coefficient is  2.60E-04 1/m at reference wavelength  488.0 nm
        The Raman scattering coefficient depends on the EXCITATION wavelength as
           (reference wavelength/excitation wavelength)^5.30

  ***** END INELASTIC SCATTER AND INTERNAL SOURCE SPECIFICATIONS *****


  ***** BEGIN ATMOSPHERIC MODEL SPECIFICATIONS *****

     Normalized sky radiances are computed using sky model "sky_radiance_HC" (Harrison and Coombes normalized sky radiances)

     The cloud fraction is cloud =  0.0 (0 for a clear sky to 1 for a heavy overcast)

     The sun is placed in quad Q(r,s) = Q( 7, 1) centered at (theta, phi) = (30.000,  0.000)

     Diffuse and direct sky irradiances are computed using RADTRANX
        (The Gregg and Carder RADTRAN model eXtended to 300-1000 nm)
     The RADTRANX clear-sky irradiances are adjusted for cloudiness by the model of Kasten and Czeplak

     Parameter values used in the RADTRANX model:
          Solar zenith    angle =   30.0  degrees
          Solar azimuthal angle =    0.0  degrees (downwind is 0)
          Sea level pressure    =   29.9  in. mercury
          Day of year not set (mean earth-sun distance used)
          Air mass type         =    1.0
          Relative humidity     =   80.0  %
          Precipitable water    =    2.5  cm
          24-hr wind speed      =    5.0  m/sec
          Current wind speed    =    5.0  m/sec
          Visibility            =   15.0  km
          Total ozone           =  300.0  Dobson units

     Irradiances are computed just above the sea surface

     Aerosol parameters from the Navy aerosol model used by RADTRANX:
          alpha                    =   0.2174
          beta                     =   0.2289
          asymmetry parameter      =   0.7892
          single scattering albedo =   0.9928

     Aerosol optical thickness at 550 nm =    0.261
 

  ***** END ATMOSPHERIC MODEL SPECIFICATIONS *****


  ***** BEGIN AIR-WATER SURFACE SPECIFICATIONS *****

     The air-water surface is for a wind speed of  5.0 m/s

     The water real index of refraction is constant for all wavelengths with the value of 1.340

     The surface wave model is Cox-Munk with azimuthally averaged slope statistics

     The azimuthal angle of the sun relative to the downwind direction is sunphi =   0.0 deg

  ***** END AIR-WATER SURFACE SPECIFICATIONS *****


  ***** BEGIN BOTTOM BOUNDARY SPECIFICATIONS *****

     The bottom boundary is an opaque reflecting surface at depth  20.00 m

     The bottom bidirectional reflectance distribution function (BRDF) is Lambertian:
        BRDF(mu',phi',mu,phi) = R/pi

     The bottom reflectance R is obtained from measured values read from a file named:
     ../data/bottom_reflectances/avg_coral.txt                                                                                                                                                                                                                       
        (Linear interpolation is used to define R at all wavelengths)

  ***** END BOTTOM BOUNDARY SPECIFICATIONS *****


  ***** BEGIN WARNING MESSAGES FOR INPUT DATA FILES *****

     No files were read with data ranges less than the run depth and wavelength ranges.

  ***** END WARNING MESSAGES FOR INPUT DATA FILES *****




     Initialization of HydroLight completed in  0.1 sec.


  * * * * * Output for wavelength band    1 ( 400.0 to  420.0 nm; nominal wavelength =  410.0 nm)  * * * * *
 

  RADTRANX clear-sky spectral irradiances averaged over the band from 400.0 nm to 420.0 nm:
          Ed(diffuse) =  4.364E-01     Ed(direct) =  7.330E-01     Ed(total) =  1.169E+00


  Absorption Coefficients of Individual Components at  410.0 nm

  iz   Geo Depth  Opt Depth   Comp 1   Comp 2   Comp 3   Comp 4    Total                                                                                                                                                                                        
          (m)                  (1/m)    (1/m)    (1/m)    (1/m)     (1/m)                                                                                                                                                                                       

   1     0.000      0.000     0.0060   0.0207   0.0000   0.0000   0.0267
   3     5.000      1.648     0.0060   0.0290   0.0000   0.0000   0.0350
   5    10.000      3.848     0.0060   0.0497   0.0000   0.0000   0.0557
   7    15.000      6.986     0.0060   0.0869   0.0000   0.0000   0.0929
  10    20.000     10.312     0.0060   0.0621   0.0000   0.0000   0.0681


  Scattering Coefficients of Individual Components at  410.0 nm

  iz   Geo Depth  Opt Depth   Comp 1   Comp 2   Comp 3   Comp 4    Total                                                                                                                                                                                        
          (m)                  (1/m)    (1/m)    (1/m)    (1/m)     (1/m)                                                                                                                                                                                       

   1     0.000      0.000     0.0059   0.2619   0.0000   0.0000   0.2678
   3     5.000      1.648     0.0059   0.3226   0.0000   0.0000   0.3285
   5    10.000      3.848     0.0059   0.4506   0.0000   0.0000   0.4565
   7    15.000      6.986     0.0059   0.6375   0.0000   0.0000   0.6434
  10    20.000     10.312     0.0059   0.5175   0.0000   0.0000   0.5234


  Backscattering Coefficients of Individual Components at  410.0 nm
  (computed from the scattering coefficients and the phase functions)

  iz   Geo Depth  Opt Depth   Comp 1   Comp 2   Comp 3   Comp 4    Total                                                                                                                                                                                        
          (m)                  (1/m)    (1/m)    (1/m)    (1/m)     (1/m)                                                                                                                                                                                       

   1     0.000      0.000    0.00296  0.00026  0.00000  0.00000  0.00323
   3     5.000      1.648    0.00296  0.00032  0.00000  0.00000  0.00329
   5    10.000      3.848    0.00296  0.00045  0.00000  0.00000  0.00341
   7    15.000      6.986    0.00296  0.00064  0.00000  0.00000  0.00360
  10    20.000     10.312    0.00296  0.00052  0.00000  0.00000  0.00348


  Summary of Inherent Optical Properties at  410.0 nm

  iz  Geo Depth  Opt Depth    total a   total b    total c    albedo   total bb  total bb/b
          (m)                  (1/m)      (1/m)               (1/m)

   1     0.000      0.000      0.0267    0.2678     0.2945    0.9093    0.00323    0.01205
   3     5.000      1.648      0.0350    0.3285     0.3635    0.9038    0.00329    0.01000
   5    10.000      3.848      0.0557    0.4565     0.5122    0.8913    0.00341    0.00748
   7    15.000      6.986      0.0929    0.6434     0.7364    0.8738    0.00360    0.00560
  10    20.000     10.312      0.0681    0.5234     0.5915    0.8849    0.00348    0.00665

     The bottom reflectance at wavelength 410.0 nm is R = 0.055



  Spectral Irradiances [units of W/(m^2 nm)], Mean Cosines (mubars), and Irradiance Reflectance at  410.0 nm

   iz     z(m)     zeta        Eou            Eod             Eo             Eu             Ed      mubar_u  mubar_d    mubar      R = Eu/Ed

             in air         1.6789E-01     1.7314E+00     1.8993E+00     5.8487E-02     1.1694E+00   0.3484   0.6754   0.5849     5.0014E-02

    1     0.00     0.00     7.3126E-02     1.3215E+00     1.3946E+00     3.2062E-02     1.1430E+00   0.4384   0.8649   0.7966     2.8051E-02
    3     5.00     1.65     5.0377E-02     1.1004E+00     1.1507E+00     2.2137E-02     9.3726E-01   0.4394   0.8518   0.7952     2.3619E-02
    5    10.00     3.85     3.1730E-02     8.3183E-01     8.6356E-01     1.4702E-02     7.0322E-01   0.4633   0.8454   0.7973     2.0906E-02
    7    15.00     6.99     2.3084E-02     5.2541E-01     5.4849E-01     1.1967E-02     4.4320E-01   0.5184   0.8435   0.7862     2.7001E-02
   10    20.00    10.31     2.9395E-02     3.2113E-01     3.5053E-01     1.4697E-02     2.6894E-01   0.5000   0.8375   0.7253     5.4650E-02



  Selected Spectral Radiances [units of W/(m^2 sr nm)] and Radiance-Irradiance Ratios at  410.0 nm

  [(theta,phi) are the directions of radiance propagation (theta = 0 is downward, phi = 0 is downwind).]

   iz       z     zeta       Lu(z)        Ld(z)    Lh(z,phi=0)  Lh(z,phi=90) Lh(z,phi=180)    Lu/Ed      Q = Eu/Lu       Lw       Rrs = Lw/Ed
           (m)            (theta=180)   (theta=0)   (theta=90)   (theta=90)   (theta=90)      (1/sr)       (sr)      (theta=180)    (1/sr)

             in air        1.179E-02    1.187E-01    1.426E-01    1.228E-01    1.836E-01    1.008E-02    4.962E+00    4.969E-03    4.249E-03

    1     0.00     0.00    9.200E-03    2.203E-01    1.817E-02    1.718E-02    1.896E-02    8.049E-03    3.485E+00
    3     5.00     1.65    6.593E-03    2.258E-01    1.323E-02    1.326E-02    1.637E-02    7.034E-03    3.358E+00
    5    10.00     3.85    4.770E-03    2.207E-01    7.591E-03    7.888E-03    1.038E-02    6.783E-03    3.082E+00
    7    15.00     6.99    4.195E-03    1.883E-01    3.569E-03    3.844E-03    5.360E-03    9.465E-03    2.853E+00
   10    20.00    10.31    4.678E-03    1.451E-01    3.900E-03    4.024E-03    4.616E-03    1.740E-02    3.142E+00



  Spectral Radiances Just Above the Water Surface (at z = a) [units of W/(m^2 sr nm)] at  410.0 nm
  and f/Q = Lu/[Ed (bb/a)] [units of 1/sr] just below the surface (at z = 0)

   [(Theta,Phi) are the directions of radiance propagation.
   For sky radiances only, theta is measured from 0 at the zenith.
   IF the sun is at phi = 0, solar radiance propagates in the Phi = 180 direction, and then
   Phi = 45 represents the 135 degree viewing angle for minimizing sun glitter.]

   I   J    Theta      Phi  Phi-view      L(sky)      L(water-lv)    L(refl-sky)    L(total up)       Rrs           rho       f/Q(z=0)
           (zenith)                                                                                             (Lrefl/Lsky)   [1/sr]
  10   1      0.0      0.0      0.0    1.18685E-01    4.96865E-03    6.81763E-03    1.17863E-02    4.24884E-03    0.057443    0.066619
   9   1     10.0      0.0    180.0    7.43745E-02    5.12187E-03    2.23408E-03    7.35595E-03    4.37987E-03    0.030038    0.069071
   9   4     10.0     45.0    135.0    8.14946E-02    5.05782E-03    2.71401E-03    7.77183E-03    4.32510E-03    0.033303    0.068317
   9   7     10.0     90.0     90.0    1.09028E-01    4.94357E-03    5.09864E-03    1.00422E-02    4.22740E-03    0.046765    0.066515
   8   1     20.0      0.0    180.0    5.80041E-02    5.20880E-03    1.38828E-03    6.59708E-03    4.45421E-03    0.023934    0.070585
